Wavelength	Flux	BestFit	SkyFlux
3791.403	-0.771	6.613	0.000
3792.277	-0.771	6.822	35.797
3793.150	4.371	6.894	33.323
3794.023	9.511	6.931	31.396
3794.897	5.313	6.846	32.301
3795.771	6.758	6.749	31.663
3796.645	8.292	6.633	31.383
3797.519	3.620	6.482	31.300
3798.394	-0.118	6.335	31.709
3799.269	3.613	6.243	32.323
3800.144	1.452	6.189	33.011
3801.019	6.187	6.163	33.933
3801.894	6.240	6.109	35.021
3802.769	8.042	6.144	36.176
3803.645	11.533	6.370	37.348
3804.521	10.685	6.590	38.305
3805.397	6.416	6.847	39.173
3806.274	4.875	6.996	40.038
3807.150	2.717	7.092	40.930
3808.027	-7.016	7.174	41.475
3808.904	3.190	7.180	41.645
3809.781	3.188	7.050	41.699
3810.658	2.969	6.936	41.477
3811.536	7.604	6.872	40.922
3812.414	11.746	6.858	39.845
3813.291	9.745	6.886	37.755
3814.170	5.954	6.916	35.000
3815.048	10.291	6.898	31.756
3815.926	6.202	6.925	27.904
3816.805	-2.526	6.911	28.024
3817.684	4.631	6.847	30.012
3818.563	5.955	6.828	32.787
3819.443	8.408	6.852	31.245
3820.322	10.479	6.736	27.390
3821.202	8.745	6.783	24.837
3822.082	7.740	6.751	25.763
3822.962	7.545	6.755	28.821
3823.843	5.759	6.882	30.233
3824.723	8.809	7.024	28.345
3825.604	5.997	7.045	24.954
3826.485	4.710	7.111	21.879
3827.366	6.106	7.225	20.459
3828.247	7.214	7.366	20.729
3829.129	7.825	7.475	22.181
3830.011	7.793	7.507	24.156
3830.893	7.873	7.531	25.944
3831.775	12.813	7.648	26.105
3832.657	8.849	7.797	24.639
3833.540	14.427	7.843	23.179
3834.423	2.828	7.833	22.687
3835.306	7.667	7.881	23.098
3836.189	10.980	7.895	24.102
3837.072	8.780	7.773	24.605
3837.956	10.518	7.684	24.118
3838.840	9.194	7.589	22.851
3839.724	7.625	7.453	21.312
3840.608	9.558	7.307	20.747
3841.493	6.393	7.181	23.357
3842.377	5.988	7.148	27.157
3843.262	7.929	7.147	30.574
3844.147	7.788	7.114	33.100
3845.032	8.751	7.026	34.436
3845.918	8.735	6.905	35.290
3846.803	4.004	6.818	35.993
3847.689	1.213	6.765	36.128
3848.575	3.329	6.606	34.936
3849.462	5.349	6.517	33.378
3850.348	2.626	6.485	32.167
3851.235	3.964	6.400	31.772
3852.122	7.455	6.428	32.449
3853.009	7.031	6.486	33.228
3853.896	5.934	6.680	33.599
3854.784	7.024	6.905	32.733
3855.671	6.810	7.094	30.512
3856.559	11.374	7.247	29.052
3857.447	8.643	7.334	29.226
3858.336	4.117	7.418	28.899
3859.224	11.151	7.370	26.010
3860.113	6.970	7.336	22.827
3861.002	4.438	7.392	22.020
3861.891	7.739	7.474	24.827
3862.780	6.985	7.537	30.084
3863.670	7.181	7.583	34.635
3864.560	14.498	7.552	35.253
3865.449	8.669	7.422	33.167
3866.340	4.533	7.281	32.437
3867.230	9.571	7.200	32.421
3868.121	7.650	7.073	32.822
3869.011	2.140	6.965	32.455
3869.902	5.325	6.985	30.801
3870.793	9.920	6.949	28.150
3871.685	8.994	6.844	25.115
3872.576	11.487	6.788	22.982
3873.468	6.107	6.722	24.049
3874.360	9.922	6.647	28.409
3875.252	9.513	6.699	33.494
3876.145	11.455	6.697	36.383
3877.037	8.480	6.615	35.492
3877.930	7.501	6.552	32.223
3878.823	6.343	6.447	29.860
3879.717	2.801	6.394	29.466
3880.610	5.119	6.289	29.810
3881.504	8.461	6.246	29.429
3882.398	4.950	6.233	27.840
3883.292	1.140	6.159	26.638
3884.186	3.216	6.158	27.892
3885.080	10.768	6.097	30.422
3885.975	7.689	5.866	30.788
3886.870	1.603	5.754	28.890
3887.765	3.692	5.844	27.298
3888.660	6.827	5.933	27.205
3889.556	3.967	5.884	26.908
3890.451	5.547	5.857	26.991
3891.347	6.333	5.829	29.784
3892.243	4.670	5.830	34.882
3893.140	5.226	5.921	37.871
3894.036	4.613	6.107	37.793
3894.933	4.526	6.282	36.806
3895.830	6.175	6.471	36.348
3896.727	5.186	6.714	37.075
3897.625	3.671	6.871	38.581
3898.522	11.535	6.910	39.173
3899.420	9.283	6.943	38.203
3900.318	2.591	7.036	37.826
3901.216	7.850	7.103	38.086
3902.114	8.538	7.120	38.214
3903.013	7.710	7.109	37.174
3903.912	9.482	7.060	35.971
3904.811	10.586	6.999	36.036
3905.710	8.451	7.057	36.057
3906.609	7.036	7.176	34.839
3907.509	11.238	7.109	35.996
3908.409	4.854	7.011	41.184
3909.309	10.372	6.977	44.194
3910.209	7.099	6.941	43.841
3911.110	6.757	6.866	43.362
3912.010	10.580	6.804	44.256
3912.911	9.070	6.760	45.051
3913.812	6.370	6.760	45.910
3914.714	9.070	6.794	46.168
3915.615	3.682	6.863	44.205
3916.517	4.483	7.031	42.018
3917.419	11.025	7.133	40.555
3918.321	5.741	7.197	39.830
3919.223	5.686	7.223	38.117
3920.126	12.770	7.238	36.221
3921.029	12.106	7.316	33.352
3921.931	7.417	7.478	31.833
3922.835	9.304	7.441	32.196
3923.738	6.784	7.300	33.399
3924.642	4.128	7.168	34.690
3925.545	4.545	7.032	34.375
3926.449	7.381	6.864	32.858
3927.354	6.085	6.789	29.921
3928.258	8.374	6.912	26.672
3929.163	8.439	7.022	23.582
3930.067	7.113	7.073	20.581
3930.972	7.003	7.068	18.007
3931.878	6.228	6.984	16.007
3932.783	7.133	6.847	14.292
3933.689	7.258	6.846	12.676
3934.595	7.797	6.827	11.830
3935.501	6.348	6.809	12.176
3936.407	5.815	6.812	13.753
3937.314	7.031	6.787	16.246
3938.220	7.691	6.727	19.139
3939.127	6.468	6.688	21.966
3940.034	7.260	6.584	25.068
3940.942	10.699	6.553	27.921
3941.849	6.158	6.651	30.134
3942.757	4.589	6.765	31.695
3943.665	2.483	6.782	30.538
3944.573	9.821	6.861	28.622
3945.481	8.580	6.915	29.333
3946.390	7.366	6.991	32.699
3947.299	7.502	7.116	35.956
3948.208	6.793	7.225	36.956
3949.117	7.854	7.247	36.541
3950.026	4.005	7.253	37.191
3950.936	5.147	7.302	40.139
3951.846	8.177	7.368	42.259
3952.756	4.519	7.427	41.492
3953.666	8.676	7.450	39.997
3954.577	11.719	7.397	39.713
3955.487	10.695	7.470	40.224
3956.398	6.906	7.511	39.977
3957.309	6.151	7.504	37.907
3958.221	12.377	7.449	36.700
3959.132	13.531	7.365	37.646
3960.044	6.596	7.366	38.481
3960.956	8.125	7.414	36.736
3961.868	7.216	7.498	31.552
3962.780	7.247	7.654	26.214
3963.693	7.805	7.816	23.927
3964.606	5.488	7.873	23.655
3965.519	5.493	7.870	22.823
3966.432	8.431	7.970	20.171
3967.345	6.785	8.010	16.507
3968.259	7.384	7.989	13.624
3969.173	6.247	7.955	12.022
3970.087	9.945	7.922	11.803
3971.001	8.767	7.882	13.152
3971.915	12.230	7.854	15.980
3972.830	11.279	7.670	19.894
3973.745	7.130	7.538	23.939
3974.660	3.919	7.516	27.260
3975.575	3.256	7.446	29.136
3976.491	9.135	7.316	30.746
3977.407	9.821	7.365	32.798
3978.323	6.213	7.272	35.186
3979.239	9.051	7.237	37.609
3980.155	8.766	7.192	39.451
3981.072	6.861	6.940	40.986
3981.988	7.140	6.806	41.489
3982.905	7.825	6.608	40.728
3983.823	5.770	6.353	39.569
3984.740	2.632	6.098	39.443
3985.658	2.020	5.834	40.359
3986.576	1.160	5.547	40.387
3987.494	4.030	5.332	41.073
3988.412	0.001	5.258	42.768
3989.330	1.652	5.267	43.716
3990.249	6.696	5.364	43.652
3991.168	2.350	5.543	43.510
3992.087	2.397	5.767	44.421
3993.006	6.973	6.026	45.566
3993.926	5.383	6.304	44.746
3994.846	12.217	6.489	43.915
3995.766	9.936	6.666	42.952
3996.686	3.180	6.811	41.420
3997.606	6.568	6.851	41.473
3998.527	2.771	6.934	41.847
3999.447	4.178	7.017	42.794
4000.369	6.601	7.100	45.117
4001.290	5.839	7.272	46.799
4002.211	7.141	7.433	46.928
4003.133	8.601	7.454	47.124
4004.055	8.737	7.523	47.411
4004.977	6.052	7.665	45.692
4005.899	7.203	7.768	40.956
4006.822	9.486	7.778	38.242
4007.744	9.873	7.771	40.276
4008.667	8.747	7.800	44.447
4009.590	7.488	7.737	46.457
4010.514	5.255	7.699	46.692
4011.437	4.019	7.707	46.638
4012.361	7.376	7.625	46.921
4013.285	10.078	7.500	46.824
4014.209	6.472	7.449	46.585
4015.134	6.420	7.320	46.905
4016.058	6.745	7.110	47.609
4016.983	5.497	6.832	46.548
4017.908	3.814	6.596	45.314
4018.833	7.276	6.408	45.406
4019.759	8.513	6.180	47.044
4020.685	3.135	5.909	48.434
4021.610	2.327	5.685	48.712
4022.537	3.744	5.446	47.895
4023.463	2.428	5.329	47.750
4024.389	-0.183	5.392	47.629
4025.316	3.381	5.535	47.004
4026.243	2.553	5.657	46.607
4027.170	3.211	5.784	47.716
4028.098	3.014	5.975	48.759
4029.025	3.399	6.197	48.503
4029.953	7.291	6.455	47.968
4030.881	7.619	6.768	44.864
4031.809	5.157	7.051	41.877
4032.738	8.748	7.268	40.260
4033.667	9.737	7.494	38.634
4034.596	8.219	7.708	38.927
4035.525	7.451	7.867	41.124
4036.454	9.954	7.967	43.600
4037.383	8.670	8.042	46.168
4038.313	6.685	8.039	49.058
4039.243	9.285	8.066	50.237
4040.173	10.343	8.129	49.165
4041.104	11.038	8.232	47.489
4042.034	8.306	8.329	45.719
4042.965	10.657	8.280	46.449
4043.896	10.712	8.402	47.919
4044.827	9.006	8.503	44.710
4045.759	5.876	8.494	41.048
4046.691	6.771	8.498	43.280
4047.622	8.709	8.590	49.681
4048.555	8.106	8.556	54.462
4049.487	8.998	8.603	53.744
4050.419	5.706	8.567	50.889
4051.352	10.224	8.523	48.769
4052.285	9.820	8.542	47.437
4053.218	3.007	8.563	45.233
4054.152	11.260	8.531	43.875
4055.085	11.016	8.631	43.986
4056.019	8.798	8.760	43.607
4056.953	8.048	8.820	43.112
4057.887	5.082	8.831	42.804
4058.822	7.355	8.838	41.508
4059.757	9.162	8.770	41.068
4060.692	9.539	8.654	44.169
4061.627	7.378	8.525	46.915
4062.562	8.076	8.521	45.341
4063.498	10.921	8.612	39.850
4064.433	8.625	8.676	36.979
4065.369	6.759	8.765	37.729
4066.305	8.514	8.819	40.239
4067.242	10.945	8.911	41.703
4068.178	11.530	8.992	41.302
4069.115	8.634	8.997	43.412
4070.052	10.063	8.965	45.612
4070.990	14.001	9.048	45.228
4071.927	10.002	9.086	41.679
4072.865	7.430	9.061	39.881
4073.803	9.699	8.999	41.121
4074.741	8.350	8.987	43.407
4075.679	8.229	9.057	44.760
4076.618	10.365	9.038	43.522
4077.557	8.571	9.048	41.571
4078.496	9.243	8.991	39.470
4079.435	6.431	8.948	39.908
4080.374	10.413	8.946	42.047
4081.314	10.397	8.940	44.775
4082.254	9.962	8.990	46.638
4083.194	10.915	9.048	46.568
4084.134	9.710	9.016	45.706
4085.075	10.082	8.937	43.859
4086.015	10.262	8.819	42.471
4086.956	6.994	8.648	43.772
4087.898	7.879	8.520	47.389
4088.839	9.573	8.411	48.174
4089.781	7.712	8.367	47.896
4090.722	9.423	8.428	47.927
4091.664	8.628	8.578	46.887
4092.607	11.875	8.767	45.469
4093.549	12.185	8.948	44.511
4094.492	10.972	8.992	44.306
4095.435	11.270	9.071	44.144
4096.378	9.898	9.106	42.797
4097.321	7.543	9.034	41.235
4098.265	8.207	8.928	40.879
4099.208	10.566	8.865	40.550
4100.152	12.381	8.695	39.057
4101.097	8.698	8.429	36.483
4102.041	6.509	8.256	32.803
4102.986	7.381	8.266	31.144
4103.931	7.779	8.407	32.550
4104.876	9.367	8.604	36.152
4105.821	10.294	8.733	39.594
4106.766	6.793	8.904	41.959
4107.712	6.626	8.990	42.971
4108.658	8.890	8.936	42.810
4109.604	10.812	8.843	42.193
4110.551	10.242	8.786	42.389
4111.497	9.975	8.743	42.741
4112.444	9.912	8.618	42.744
4113.391	10.068	8.535	43.592
4114.338	8.048	8.542	45.007
4115.286	9.979	8.553	45.871
4116.233	14.294	8.545	46.139
4117.181	6.908	8.580	46.717
4118.130	6.746	8.559	46.637
4119.078	8.458	8.457	44.543
4120.026	7.445	8.340	42.354
4120.975	6.172	8.271	43.267
4121.924	8.553	8.231	43.940
4122.873	8.483	8.382	43.267
4123.823	11.272	8.543	43.154
4124.772	13.045	8.625	44.465
4125.722	8.957	8.676	45.290
4126.672	7.184	8.717	44.120
4127.623	7.631	8.606	42.907
4128.573	11.270	8.536	41.810
4129.524	7.615	8.518	42.383
4130.475	8.571	8.514	42.696
4131.426	7.606	8.488	41.868
4132.378	9.262	8.428	40.234
4133.329	8.889	8.357	38.561
4134.281	6.015	8.320	38.295
4135.233	5.001	8.331	39.942
4136.185	7.693	8.442	41.771
4137.138	12.732	8.608	42.579
4138.091	12.204	8.730	43.487
4139.044	9.091	8.814	45.220
4139.997	8.095	8.805	46.148
4140.950	11.789	8.789	46.344
4141.904	8.272	8.800	45.348
4142.858	9.133	8.856	42.031
4143.812	8.460	8.944	38.234
4144.766	6.147	8.985	36.624
4145.720	7.756	9.052	38.470
4146.675	8.314	9.155	41.825
4147.630	8.829	9.124	43.041
4148.585	11.138	8.980	42.331
4149.540	10.161	8.891	41.808
4150.496	7.795	8.823	41.362
4151.452	10.468	8.680	41.745
4152.408	9.047	8.567	42.463
4153.364	10.832	8.404	41.432
4154.321	8.983	8.166	39.866
4155.277	5.766	7.971	39.777
4156.234	7.512	7.902	40.825
4157.191	4.736	7.838	41.256
4158.149	7.004	7.915	41.752
4159.106	5.673	8.044	41.352
4160.064	5.534	8.067	42.847
4161.022	3.724	7.964	44.212
4161.980	6.319	7.941	44.970
4162.939	6.995	8.019	45.960
4163.897	6.727	8.182	46.370
4164.856	7.343	8.350	46.291
4165.815	8.722	8.414	45.825
4166.775	9.894	8.373	44.587
4167.734	9.562	8.439	41.515
4168.694	12.862	8.489	41.134
4169.654	6.574	8.524	42.946
4170.614	7.670	8.608	44.115
4171.574	11.094	8.716	42.929
4172.535	9.005	8.774	40.150
4173.496	10.369	8.815	37.795
4174.457	9.842	8.855	37.391
4175.418	7.532	8.791	38.371
4176.380	7.137	8.681	39.640
4177.342	7.113	8.648	39.612
4178.304	10.284	8.702	39.361
4179.266	10.002	8.648	39.236
4180.228	9.318	8.662	40.227
4181.191	7.520	8.740	41.197
4182.154	7.068	8.787	40.008
4183.117	9.679	8.786	39.008
4184.080	7.284	8.777	39.172
4185.044	6.150	8.742	39.948
4186.007	8.823	8.686	40.117
4186.971	11.499	8.608	39.004
4187.936	12.503	8.504	37.386
4188.900	7.879	8.405	36.259
4189.865	7.499	8.366	37.069
4190.830	7.574	8.394	39.441
4191.795	8.055	8.453	40.755
4192.760	9.892	8.531	40.474
4193.725	9.260	8.607	41.185
4194.691	8.880	8.720	41.932
4195.657	9.450	8.875	40.852
4196.623	9.437	8.886	39.121
4197.590	8.774	8.877	38.122
4198.556	10.119	8.791	36.596
4199.523	13.234	8.659	34.654
4200.490	7.910	8.504	35.555
4201.458	8.387	8.342	36.168
4202.425	7.477	8.301	35.891
4203.393	6.637	8.407	36.587
4204.361	10.235	8.512	37.707
4205.329	11.213	8.566	38.859
4206.298	7.909	8.583	40.067
4207.266	9.482	8.589	41.497
4208.235	12.145	8.577	42.266
4209.204	5.693	8.459	41.881
4210.174	7.885	8.451	41.400
4211.143	9.001	8.461	41.101
4212.113	11.884	8.422	40.772
4213.083	12.267	8.405	41.218
4214.053	9.812	8.441	41.520
4215.023	9.252	8.490	40.176
4215.994	7.815	8.562	38.658
4216.965	8.359	8.657	38.243
4217.936	11.174	8.748	38.767
4218.907	11.815	8.810	39.210
4219.879	9.702	8.871	40.342
4220.851	7.616	8.880	42.357
4221.823	10.049	8.890	43.283
4222.795	6.175	8.847	41.968
4223.767	9.773	8.769	39.416
4224.740	8.318	8.734	37.150
4225.713	10.059	8.689	34.277
4226.686	9.017	8.613	29.890
4227.659	8.733	8.621	26.769
4228.633	10.822	8.577	28.813
4229.607	10.022	8.445	34.979
4230.581	7.066	8.341	39.767
4231.555	6.114	8.266	41.169
4232.530	7.688	8.217	41.452
4233.504	7.058	8.274	40.149
4234.479	8.320	8.298	38.799
4235.454	12.541	8.291	37.594
4236.430	8.890	8.376	36.896
4237.405	8.134	8.440	35.844
4238.381	10.968	8.438	35.547
4239.357	10.316	8.467	36.373
4240.333	8.008	8.475	37.202
4241.310	7.557	8.483	37.984
4242.287	6.906	8.573	38.878
4243.263	10.744	8.631	38.417
4244.241	9.309	8.591	39.230
4245.218	8.201	8.549	40.244
4246.196	8.268	8.562	40.685
4247.173	6.742	8.586	40.962
4248.152	9.106	8.580	39.700
4249.130	9.125	8.663	37.268
4250.108	9.149	8.723	34.639
4251.087	11.674	8.765	34.296
4252.066	11.546	8.780	36.021
4253.045	9.350	8.749	38.435
4254.025	8.423	8.659	39.196
4255.004	10.609	8.515	37.262
4255.984	8.652	8.413	35.530
4256.964	8.938	8.344	37.268
4257.945	9.323	8.291	39.840
4258.925	7.979	8.278	39.558
4259.906	10.848	8.319	35.855
4260.887	10.386	8.359	31.878
4261.868	7.053	8.428	30.846
4262.849	8.750	8.547	33.319
4263.831	10.486	8.663	37.571
4264.813	9.450	8.757	40.024
4265.795	9.296	8.853	39.774
4266.778	10.358	8.929	39.190
4267.760	10.725	8.942	39.547
4268.743	9.629	8.887	38.829
4269.726	9.304	8.875	36.746
4270.709	11.053	8.909	34.394
4271.693	11.693	8.868	31.877
4272.676	11.131	8.754	30.042
4273.660	8.844	8.707	30.826
4274.644	5.667	8.746	32.606
4275.629	7.513	8.786	33.943
4276.613	9.408	8.835	35.180
4277.598	9.640	8.958	36.685
4278.583	6.528	9.059	38.026
4279.569	7.761	9.080	38.520
4280.554	8.040	8.977	37.461
4281.540	8.014	8.802	35.818
4282.526	7.550	8.582	35.449
4283.512	8.026	8.312	36.215
4284.499	8.018	8.050	37.096
4285.485	6.278	7.848	36.766
4286.472	6.081	7.837	34.531
4287.459	8.297	8.005	33.461
4288.447	9.863	8.292	33.819
4289.434	9.927	8.601	33.401
4290.422	6.567	8.750	30.718
4291.410	7.820	8.780	30.352
4292.398	8.482	8.755	32.310
4293.387	9.907	8.743	33.524
4294.375	10.496	8.749	34.131
4295.364	9.922	8.735	34.345
4296.353	8.772	8.712	33.909
4297.343	8.618	8.669	33.243
4298.332	10.704	8.680	30.867
4299.322	9.137	8.800	27.553
4300.312	7.115	8.944	25.052
4301.303	8.637	8.991	24.216
4302.293	11.311	9.050	24.955
4303.284	9.479	9.158	26.017
4304.275	9.966	9.191	26.102
4305.266	10.761	9.153	26.068
4306.258	11.085	9.054	26.552
4307.249	10.210	8.899	26.288
4308.241	10.546	8.795	24.854
4309.233	10.973	8.707	23.805
4310.226	7.566	8.676	23.511
4311.218	11.334	8.636	24.388
4312.211	9.700	8.596	26.225
4313.204	6.785	8.628	28.562
4314.197	10.652	8.666	30.754
4315.191	8.309	8.716	34.186
4316.184	8.603	8.764	37.863
4317.178	11.192	8.772	40.797
4318.173	11.186	8.728	42.079
4319.167	7.888	8.668	42.276
4320.162	6.362	8.648	41.394
4321.157	7.228	8.710	41.082
4322.152	7.361	8.848	39.817
4323.147	12.528	9.004	36.960
4324.143	7.132	9.133	33.616
4325.138	8.961	9.215	30.169
4326.134	8.669	9.217	27.678
4327.131	10.540	9.074	28.821
4328.127	7.778	8.881	32.503
4329.124	9.302	8.666	36.389
4330.121	9.616	8.436	38.725
4331.118	7.529	8.234	38.768
4332.115	6.505	8.132	38.228
4333.113	6.805	8.123	38.226
4334.111	9.941	8.191	38.592
4335.109	10.509	8.323	39.580
4336.107	7.454	8.524	38.736
4337.106	11.214	8.745	37.079
4338.104	8.670	8.812	35.159
4339.103	9.435	8.895	31.986
4340.103	10.985	8.851	28.709
4341.102	8.187	8.762	26.843
4342.102	7.902	8.750	27.143
4343.102	9.484	8.781	29.963
4344.102	7.465	8.682	32.924
4345.102	6.201	8.648	34.976
4346.103	9.604	8.589	36.624
4347.104	8.746	8.467	37.803
4348.105	9.687	8.351	38.656
4349.106	6.099	8.297	39.106
4350.108	6.787	8.196	39.357
4351.109	8.754	8.204	37.357
4352.111	8.264	8.299	34.279
4353.114	7.345	8.388	32.328
4354.116	8.403	8.423	33.151
4355.119	10.444	8.394	35.423
4356.122	8.811	8.273	37.230
4357.125	6.142	8.103	41.819
4358.128	7.209	7.906	52.771
4359.132	6.224	7.734	63.510
4360.136	8.115	7.565	63.092
4361.140	8.997	7.395	53.186
4362.144	3.828	7.428	46.146
4363.149	7.748	7.445	43.148
4364.153	8.277	7.407	41.482
4365.158	7.006	7.396	41.163
4366.164	5.538	7.392	41.615
4367.169	7.707	7.329	40.333
4368.175	7.208	7.310	39.091
4369.181	5.753	7.298	37.512
4370.187	10.470	7.361	37.227
4371.193	9.921	7.535	37.353
4372.200	6.904	7.815	37.414
4373.207	7.211	8.124	37.709
4374.214	7.736	8.328	36.454
4375.221	9.180	8.643	34.820
4376.229	11.144	8.947	33.976
4377.236	9.876	9.234	34.545
4378.244	9.458	9.440	36.418
4379.253	9.809	9.463	37.251
4380.261	6.841	9.436	37.871
4381.270	6.894	9.296	37.293
4382.279	10.901	9.060	36.047
4383.288	9.272	8.808	33.159
4384.297	6.936	8.564	27.801
4385.307	8.716	8.341	25.303
4386.317	7.189	8.290	28.942
4387.327	4.914	8.390	33.337
4388.337	8.660	8.624	34.174
4389.348	10.088	8.877	34.309
4390.359	10.758	9.049	34.446
4391.370	8.276	9.134	34.896
4392.381	7.984	9.199	35.431
4393.392	8.622	9.191	35.666
4394.404	8.754	9.219	35.722
4395.416	9.128	9.185	34.571
4396.428	7.595	8.984	34.138
4397.441	8.706	8.686	36.031
4398.453	7.335	8.523	37.932
4399.466	5.514	8.520	37.562
4400.479	7.712	8.751	35.780
4401.493	8.119	8.970	34.584
4402.506	5.937	8.904	35.109
4403.520	8.047	8.608	36.166
4404.534	6.032	8.551	35.775
4405.549	4.076	8.625	33.517
4406.563	7.255	8.803	32.566
4407.578	9.692	8.979	34.114
4408.593	8.577	9.075	35.715
4409.608	8.931	9.095	35.987
4410.624	11.311	9.058	36.588
4411.639	8.820	8.986	38.781
4412.655	5.550	8.831	40.618
4413.671	8.051	8.743	41.294
4414.688	10.408	8.800	39.099
4415.704	6.891	8.922	35.763
4416.721	10.362	9.038	34.610
4417.738	14.072	9.167	35.435
4418.756	11.388	9.234	37.476
4419.773	8.009	9.254	39.458
4420.791	7.770	9.304	40.708
4421.809	8.575	9.412	40.555
4422.827	9.954	9.483	37.987
4423.846	8.558	9.568	37.112
4424.865	11.160	9.638	37.015
4425.884	13.624	9.675	36.798
4426.903	10.406	9.648	37.261
4427.922	9.600	9.547	37.532
4428.942	11.544	9.454	38.227
4429.962	11.496	9.348	38.219
4430.982	7.587	9.269	37.754
4432.003	8.891	9.230	37.035
4433.023	10.811	9.206	36.926
4434.044	8.653	9.142	36.843
4435.065	8.409	9.002	35.409
4436.086	9.403	8.938	33.924
4437.108	7.532	8.985	33.669
4438.130	10.649	9.077	37.163
4439.152	9.703	9.124	39.735
4440.174	9.114	9.096	39.687
4441.197	9.351	9.069	39.373
4442.219	6.685	8.908	37.656
4443.242	7.277	8.610	35.334
4444.266	6.938	8.333	34.796
4445.289	6.364	8.171	36.256
4446.313	6.866	8.140	38.115
4447.337	7.771	8.314	38.580
4448.361	9.890	8.471	38.017
4449.385	11.207	8.648	37.758
4450.410	8.639	8.753	37.988
4451.435	7.516	8.804	38.208
4452.460	6.856	8.916	37.914
4453.485	12.384	8.967	37.207
4454.511	9.086	9.005	36.102
4455.536	9.061	9.065	32.955
4456.562	6.651	9.121	31.916
4457.589	9.077	9.209	32.597
4458.615	11.636	9.345	33.145
4459.642	8.388	9.333	33.560
4460.669	7.826	9.335	33.315
